# H/D spectrum, scan rate = 100 nm/min; order = 1
3.806670000e+02  4.165486000e-10
3.821310000e+02  4.222329000e-10
3.835820000e+02  3.642526000e-10
3.847050000e+02  3.090008000e-10
3.858170000e+02  2.694378000e-10
3.872060000e+02  2.426077000e-10
3.886560000e+02  2.214620000e-10
3.900970000e+02  2.635261000e-10
3.915490000e+02  3.537934000e-10
3.929890000e+02  3.076366000e-10
3.944420000e+02  2.698926000e-10
3.958930000e+02  3.135483000e-10
3.973320000e+02  3.817604000e-10
3.987850000e+02  4.606591000e-10
4.002210000e+02  5.584297000e-10
4.016700000e+02  6.737082000e-10
4.031210000e+02  8.897132000e-10
4.045610000e+02  7.394078000e-08
4.060100000e+02  8.111328000e-08
4.074570000e+02  5.975835000e-09
4.088940000e+02  8.059942000e-09
4.103430000e+02  3.319201000e-09
4.117800000e+02  4.199819000e-09
4.132260000e+02  5.135007000e-09
4.146720000e+02  6.637947000e-09
4.161090000e+02  7.401923000e-09
4.175540000e+02  8.193410000e-09
4.189890000e+02  9.230234000e-09
4.204330000e+02  9.865744000e-09
4.218800000e+02  1.084345000e-08
4.233130000e+02  1.239209000e-08
4.247560000e+02  1.362264000e-08
4.261890000e+02  1.532362000e-08
4.276340000e+02  1.714784000e-08
4.290760000e+02  1.855688000e-08
4.305080000e+02  2.030720000e-08
4.319540000e+02  2.186516000e-08
4.333930000e+02  2.449747000e-08
4.348250000e+02  9.971109000e-08
4.362640000e+02  5.242318000e-07
4.377020000e+02  3.353698000e-07
4.391350000e+02  2.939601000e-08
4.405720000e+02  3.023183000e-08
4.419990000e+02  3.032324000e-08
4.434270000e+02  3.051423000e-08
4.448740000e+02  3.062883000e-08
4.463120000e+02  3.090440000e-08
4.477260000e+02  3.091827000e-08
4.491690000e+02  3.074570000e-08
4.506120000e+02  3.017499000e-08
4.520400000e+02  2.991601000e-08
4.534760000e+02  2.958132000e-08
4.549070000e+02  2.892943000e-08
4.563380000e+02  2.833008000e-08
4.577750000e+02  2.779825000e-08
4.592050000e+02  2.708271000e-08
4.606330000e+02  2.647653000e-08
4.620580000e+02  2.573552000e-08
4.634830000e+02  2.518641000e-08
4.649090000e+02  2.522916000e-08
4.663440000e+02  2.487241000e-08
4.677800000e+02  2.470119000e-08
4.691910000e+02  2.309753000e-08
4.706260000e+02  2.130673000e-08
4.720530000e+02  2.109959000e-08
4.734850000e+02  2.076695000e-08
4.749150000e+02  1.959484000e-08
4.763380000e+02  1.832268000e-08
4.777570000e+02  1.761737000e-08
4.791750000e+02  1.827152000e-08
4.806120000e+02  2.056527000e-08
4.820400000e+02  2.656793000e-08
4.834630000e+02  4.528215000e-08
4.848900000e+02  7.859990000e-08
4.862980000e+02  1.165665000e-07
4.877360000e+02  1.360886000e-07
4.891450000e+02  1.323606000e-07
4.905600000e+02  1.197338000e-07
4.919900000e+02  1.044959000e-07
4.934100000e+02  9.119890000e-08
4.948420000e+02  7.625090000e-08
4.962620000e+02  6.480695000e-08
4.976770000e+02  5.994980000e-08
4.991010000e+02  4.796129000e-08
5.005090000e+02  3.217974000e-08
5.019310000e+02  2.093043000e-08
5.033550000e+02  1.460330000e-08
5.047700000e+02  1.154126000e-08
5.061920000e+02  9.358018000e-09
5.075900000e+02  8.107463000e-09
5.090140000e+02  7.842800000e-09
5.104270000e+02  7.976723000e-09
5.118520000e+02  7.664539000e-09
5.132700000e+02  7.665903000e-09
5.146700000e+02  7.374865000e-09
5.160890000e+02  7.021754000e-09
5.175100000e+02  6.686605000e-09
5.189110000e+02  6.158416000e-09
5.203270000e+02  5.785978000e-09
5.217490000e+02  5.458105000e-09
5.231430000e+02  5.074526000e-09
5.245730000e+02  5.100219000e-09
5.259660000e+02  5.076799000e-09
5.273950000e+02  5.476750000e-09
5.288040000e+02  5.544734000e-09
5.302090000e+02  5.494940000e-09
5.316220000e+02  6.180016000e-09
5.330270000e+02  1.182252000e-08
5.344410000e+02  1.601938000e-08
5.358480000e+02  1.345575000e-08
5.372490000e+02  2.041747000e-08
5.386490000e+02  4.401090000e-08
5.400630000e+02  8.046436000e-08
5.414640000e+02  1.809603000e-07
5.428600000e+02  3.515245000e-07
5.442750000e+02  4.059548000e-07
5.456750000e+02  3.985010000e-07
5.470880000e+02  2.874906000e-07
5.484970000e+02  1.060328000e-07
5.499000000e+02  9.420819000e-08
5.512930000e+02  7.745280000e-08
5.527010000e+02  6.409732000e-08
5.541000000e+02  4.461435000e-08
5.554960000e+02  2.178240000e-08
5.569070000e+02  1.228818000e-08
5.583000000e+02  9.725454000e-09
5.596890000e+02  8.325742000e-09
5.611020000e+02  7.420795000e-09
5.625060000e+02  6.949904000e-09
5.639040000e+02  6.395567000e-09
5.652950000e+02  5.813490000e-09
5.666980000e+02  5.429456000e-09
5.680920000e+02  5.244829000e-09
5.694910000e+02  5.200945000e-09
5.708870000e+02  4.945150000e-09
5.722770000e+02  5.056563000e-09
5.736780000e+02  5.573838000e-09
5.750670000e+02  5.951733000e-09
5.764670000e+02  1.185117000e-08
5.778490000e+02  1.518151000e-08
5.792490000e+02  1.734884000e-08
5.806450000e+02  2.467414000e-08
5.820320000e+02  2.350316000e-08
5.834290000e+02  2.715569000e-08
5.848090000e+02  2.792535000e-08
5.862030000e+02  2.339880000e-08
5.875980000e+02  3.072182000e-08
5.889870000e+02  2.852676000e-08
5.903770000e+02  1.700846000e-08
5.917670000e+02  1.482954000e-08
5.931480000e+02  1.761350000e-08
5.945410000e+02  1.466901000e-08
5.959230000e+02  7.552899000e-09
5.973130000e+02  6.153414000e-09
5.986900000e+02  7.229346000e-09
6.000800000e+02  9.073801000e-09
6.014710000e+02  6.619075000e-09
6.028460000e+02  3.835567000e-09
6.042190000e+02  3.394007000e-09
6.056040000e+02  3.575451000e-09
6.070000000e+02  4.023150000e-09
6.083830000e+02  5.679112000e-09
6.097580000e+02  1.245257000e-08
6.111350000e+02  5.391371000e-08
6.125310000e+02  6.420282000e-08
6.139060000e+02  2.717479000e-08
6.152870000e+02  1.734361000e-08
6.166620000e+02  1.019248000e-08
6.180450000e+02  6.067239000e-09
6.194230000e+02  5.382162000e-09
6.207960000e+02  5.773700000e-09
6.221780000e+02  5.258016000e-09
6.235490000e+02  4.183221000e-09
6.249270000e+02  3.914693000e-09
6.262950000e+02  3.690275000e-09
6.276750000e+02  2.856495000e-09
6.290550000e+02  2.352181000e-09
6.304200000e+02  3.114337000e-09
6.317980000e+02  3.629111000e-09
6.331640000e+02  1.905391000e-09
6.345420000e+02  7.382823000e-10
6.359160000e+02  6.193659000e-10
6.372810000e+02  5.279617000e-10
6.386440000e+02  4.586127000e-10
6.400260000e+02  4.258709000e-10
6.413900000e+02  4.151843000e-10
6.427640000e+02  3.917648000e-10
6.441300000e+02  3.942660000e-10
6.455010000e+02  4.345111000e-10
6.468590000e+02  3.965397000e-10
6.482190000e+02  3.819878000e-10
6.496000000e+02  4.406502000e-10
6.509610000e+02  5.707079000e-10
6.523310000e+02  4.963567000e-10
6.536830000e+02  3.906280000e-10
6.550520000e+02  3.851710000e-10
6.564040000e+02  3.349214000e-10
6.577660000e+02  3.453806000e-10
6.591440000e+02  3.974492000e-10
6.604930000e+02  3.797140000e-10
6.618610000e+02  4.019967000e-10
6.632160000e+02  3.656169000e-10
6.645780000e+02  3.456080000e-10
6.659480000e+02  3.299192000e-10
6.672940000e+02  3.328751000e-10
6.686590000e+02  4.065441000e-10
6.700220000e+02  3.747118000e-10
6.713720000e+02  2.958132000e-10
6.727340000e+02  2.787601000e-10
6.740790000e+02  2.821707000e-10
6.754360000e+02  3.042260000e-10
6.767980000e+02  3.012701000e-10
6.781470000e+02  2.789875000e-10
6.795040000e+02  2.758043000e-10
